# Cut-survival probability for tungsten-recoil events
# within the acceptance region for dark-matter searches
# Energy [keV] | Cut-survival probability
 0	0
 0.0040004	0
 0.0080008	0
 0.0120012	0
 0.0160016	0
 0.020002	0
 0.0240024	0
 0.0280028	0
 0.0320032	0
 0.0360036	0
 0.040004	0
 0.0440044	0
 0.0480048	0
 0.0520052	0
 0.0560056	0
 0.060006	0
 0.0640064	0
 0.0680068	0
 0.0720072	0
 0.0760076	0
 0.080008	0
 0.0840084	0
 0.0880088	0
 0.0920092	0
 0.0960096	0
 0.10001	0
 0.10401	0
 0.108011	0
 0.112011	0
 0.116012	0
 0.120012	0
 0.124012	0
 0.128013	0
 0.132013	0
 0.136014	0
 0.140014	0
 0.144014	0
 0.148015	0
 0.152015	0
 0.156016	0
 0.160016	0
 0.164016	0
 0.168017	0
 0.172017	0
 0.176018	0
 0.180018	0
 0.184018	0
 0.188019	0
 0.192019	0
 0.19602	0
 0.20002	0
 0.20402	0
 0.208021	0
 0.212021	0
 0.216022	0
 0.220022	0
 0.224022	0
 0.228023	0
 0.232023	0
 0.236024	0
 0.240024	0
 0.244024	0
 0.248025	0
 0.252025	0
 0.256026	0
 0.260026	0
 0.264026	0
 0.268027	0
 0.272027	0
 0.276028	0
 0.280028	0
 0.284028	0
 0.288029	0
 0.292029	0
 0.29603	0
 0.30003	0
 0.30403	0
 0.308031	0
 0.312031	0
 0.316032	0
 0.320032	0
 0.324032	0
 0.328033	0
 0.332033	0
 0.336034	0
 0.340034	0
 0.344034	0
 0.348035	0
 0.352035	0
 0.356036	0
 0.360036	0
 0.364036	0
 0.368037	0
 0.372037	0
 0.376038	0
 0.380038	0
 0.384038	0
 0.388039	0
 0.392039	0
 0.39604	0
 0.40004	0
 0.40404	0
 0.408041	0
 0.412041	0
 0.416042	0
 0.420042	0
 0.424042	0
 0.428043	0
 0.432043	0
 0.436044	0
 0.440044	0
 0.444044	0
 0.448045	0
 0.452045	0
 0.456046	0
 0.460046	0
 0.464046	0
 0.468047	0
 0.472047	0
 0.476048	0
 0.480048	0
 0.484048	0
 0.488049	0
 0.492049	0
 0.49605	0
 0.50005	0
 0.50405	0
 0.508051	0
 0.512051	0
 0.516052	0
 0.520052	0
 0.524052	0
 0.528053	0
 0.532053	0
 0.536054	0
 0.540054	0
 0.544054	0
 0.548055	0
 0.552055	0
 0.556056	0
 0.560056	0
 0.564056	0
 0.568057	0
 0.572057	0
 0.576058	0
 0.580058	0
 0.584058	0
 0.588059	0
 0.592059	0
 0.59606	0
 0.60006	0
 0.60406	0.0851322
 0.608061	0.0869828
 0.612061	0.0888365
 0.616062	0.0906931
 0.620062	0.0925529
 0.624062	0.0944156
 0.628063	0.0962814
 0.632063	0.0981502
 0.636064	0.100022
 0.640064	0.101897
 0.644064	0.103775
 0.648065	0.105656
 0.652065	0.107539
 0.656066	0.109426
 0.660066	0.111316
 0.664066	0.113209
 0.668067	0.115105
 0.672067	0.117004
 0.676068	0.118906
 0.680068	0.120811
 0.684068	0.122719
 0.688069	0.12463
 0.692069	0.126544
 0.69607	0.128461
 0.70007	0.130383
 0.70407	0.132458
 0.708071	0.134537
 0.712071	0.136619
 0.716072	0.138704
 0.720072	0.140792
 0.724072	0.142883
 0.728073	0.144978
 0.732073	0.147076
 0.736074	0.149177
 0.740074	0.151281
 0.744074	0.153388
 0.748075	0.155499
 0.752075	0.157613
 0.756076	0.15973
 0.760076	0.16185
 0.764076	0.163974
 0.768077	0.1661
 0.772077	0.16823
 0.776078	0.170363
 0.780078	0.1725
 0.784078	0.174639
 0.788079	0.176782
 0.792079	0.178928
 0.79608	0.181077
 0.80008	0.183226
 0.80408	0.185239
 0.808081	0.187256
 0.812081	0.189275
 0.816082	0.191297
 0.820082	0.193322
 0.824082	0.19535
 0.828083	0.197381
 0.832083	0.199415
 0.836084	0.201452
 0.840084	0.203492
 0.844084	0.205534
 0.848085	0.20758
 0.852085	0.209629
 0.856086	0.21168
 0.860086	0.213734
 0.864086	0.215791
 0.868087	0.217851
 0.872087	0.219914
 0.876088	0.22198
 0.880088	0.224049
 0.884088	0.226121
 0.888089	0.228195
 0.892089	0.230273
 0.89609	0.232353
 0.90009	0.234431
 0.90409	0.236272
 0.908091	0.238116
 0.912091	0.239963
 0.916092	0.241812
 0.920092	0.243664
 0.924092	0.245518
 0.928093	0.247374
 0.932093	0.249233
 0.936094	0.251095
 0.940094	0.252958
 0.944094	0.254825
 0.948095	0.256694
 0.952095	0.258565
 0.956096	0.260439
 0.960096	0.262315
 0.964096	0.264194
 0.968097	0.266075
 0.972097	0.267958
 0.976098	0.269844
 0.980098	0.271733
 0.984098	0.273624
 0.988099	0.275517
 0.992099	0.277413
 0.9961	0.279311
 1.0001	0.281201
 1.0041	0.28269
 1.0081	0.284181
 1.0121	0.285674
 1.0161	0.287168
 1.0201	0.288665
 1.0241	0.290163
 1.0281	0.291663
 1.0321	0.293164
 1.0361	0.294668
 1.0401	0.296173
 1.0441	0.29768
 1.0481	0.299189
 1.05211	0.300699
 1.05611	0.302211
 1.06011	0.303726
 1.06411	0.305241
 1.06811	0.306759
 1.07211	0.308278
 1.07611	0.3098
 1.08011	0.311322
 1.08411	0.312847
 1.08811	0.314374
 1.09211	0.315902
 1.09611	0.317432
 1.10011	0.318963
 1.10411	0.320497
 1.10811	0.322032
 1.11211	0.323569
 1.11611	0.325108
 1.12011	0.326648
 1.12411	0.32819
 1.12811	0.329734
 1.13211	0.33128
 1.13611	0.332827
 1.14011	0.334376
 1.14411	0.335927
 1.14811	0.33748
 1.15212	0.339034
 1.15612	0.34059
 1.16012	0.342148
 1.16412	0.343707
 1.16812	0.345268
 1.17212	0.346831
 1.17612	0.348396
 1.18012	0.349962
 1.18412	0.35153
 1.18812	0.3531
 1.19212	0.354671
 1.19612	0.356244
 1.20012	0.357807
 1.20412	0.358979
 1.20812	0.360152
 1.21212	0.361326
 1.21612	0.362502
 1.22012	0.363678
 1.22412	0.364856
 1.22812	0.366035
 1.23212	0.367215
 1.23612	0.368395
 1.24012	0.369578
 1.24412	0.370761
 1.24812	0.371945
 1.25213	0.373131
 1.25613	0.374317
 1.26013	0.375505
 1.26413	0.376693
 1.26813	0.377883
 1.27213	0.379074
 1.27613	0.380266
 1.28013	0.381459
 1.28413	0.382653
 1.28813	0.383849
 1.29213	0.385045
 1.29613	0.386243
 1.30013	0.387441
 1.30413	0.388641
 1.30813	0.389842
 1.31213	0.391043
 1.31613	0.392246
 1.32013	0.39345
 1.32413	0.394655
 1.32813	0.395862
 1.33213	0.397069
 1.33613	0.398277
 1.34013	0.399486
 1.34413	0.400697
 1.34813	0.401908
 1.35214	0.403121
 1.35614	0.404334
 1.36014	0.405549
 1.36414	0.406765
 1.36814	0.407982
 1.37214	0.4092
 1.37614	0.410419
 1.38014	0.411638
 1.38414	0.41286
 1.38814	0.414082
 1.39214	0.415305
 1.39614	0.416529
 1.40014	0.417744
 1.40414	0.418692
 1.40814	0.41964
 1.41214	0.420589
 1.41614	0.421538
 1.42014	0.422488
 1.42414	0.423439
 1.42814	0.424391
 1.43214	0.425343
 1.43614	0.426296
 1.44014	0.427249
 1.44414	0.428204
 1.44814	0.429158
 1.45215	0.430114
 1.45615	0.43107
 1.46015	0.432027
 1.46415	0.432984
 1.46815	0.433943
 1.47215	0.434901
 1.47615	0.435861
 1.48015	0.436821
 1.48415	0.437782
 1.48815	0.438743
 1.49215	0.439705
 1.49615	0.440668
 1.50015	0.441631
 1.50415	0.442595
 1.50815	0.44356
 1.51215	0.444525
 1.51615	0.445491
 1.52015	0.446458
 1.52415	0.447425
 1.52815	0.448393
 1.53215	0.449362
 1.53615	0.450331
 1.54015	0.451301
 1.54415	0.452271
 1.54815	0.453242
 1.55216	0.454214
 1.55616	0.455186
 1.56016	0.456159
 1.56416	0.457133
 1.56816	0.458107
 1.57216	0.459082
 1.57616	0.460057
 1.58016	0.461033
 1.58416	0.46201
 1.58816	0.462987
 1.59216	0.463965
 1.59616	0.464944
 1.60016	0.465918
 1.60416	0.466766
 1.60816	0.467614
 1.61216	0.468463
 1.61616	0.469312
 1.62016	0.470162
 1.62416	0.471012
 1.62816	0.471863
 1.63216	0.472714
 1.63616	0.473566
 1.64016	0.474418
 1.64416	0.47527
 1.64816	0.476123
 1.65217	0.476976
 1.65617	0.47783
 1.66017	0.478684
 1.66417	0.479539
 1.66817	0.480394
 1.67217	0.48125
 1.67617	0.482106
 1.68017	0.482962
 1.68417	0.483819
 1.68817	0.484676
 1.69217	0.485534
 1.69617	0.486392
 1.70017	0.487251
 1.70417	0.48811
 1.70817	0.488969
 1.71217	0.489829
 1.71617	0.490689
 1.72017	0.49155
 1.72417	0.492411
 1.72817	0.493273
 1.73217	0.494135
 1.73617	0.494997
 1.74017	0.49586
 1.74417	0.496723
 1.74817	0.497587
 1.75218	0.498451
 1.75618	0.499316
 1.76018	0.500181
 1.76418	0.501046
 1.76818	0.501912
 1.77218	0.502778
 1.77618	0.503644
 1.78018	0.504511
 1.78418	0.505379
 1.78818	0.506247
 1.79218	0.507115
 1.79618	0.507983
 1.80018	0.508847
 1.80418	0.509599
 1.80818	0.51035
 1.81218	0.511102
 1.81618	0.511855
 1.82018	0.512607
 1.82418	0.51336
 1.82818	0.514113
 1.83218	0.514867
 1.83618	0.51562
 1.84018	0.516374
 1.84418	0.517128
 1.84818	0.517883
 1.85219	0.518637
 1.85619	0.519392
 1.86019	0.520147
 1.86419	0.520903
 1.86819	0.521659
 1.87219	0.522415
 1.87619	0.523171
 1.88019	0.523927
 1.88419	0.524684
 1.88819	0.525441
 1.89219	0.526198
 1.89619	0.526956
 1.90019	0.527713
 1.90419	0.528471
 1.90819	0.529229
 1.91219	0.529988
 1.91619	0.530747
 1.92019	0.531506
 1.92419	0.532265
 1.92819	0.533024
 1.93219	0.533784
 1.93619	0.534544
 1.94019	0.535304
 1.94419	0.536064
 1.94819	0.536825
 1.9522	0.537586
 1.9562	0.538347
 1.9602	0.539109
 1.9642	0.53987
 1.9682	0.540632
 1.9722	0.541394
 1.9762	0.542156
 1.9802	0.542919
 1.9842	0.543682
 1.9882	0.544445
 1.9922	0.545208
 1.9962	0.545971
 2.0002	0.546728
 2.0042	0.547357
 2.0082	0.547985
 2.0122	0.548614
 2.0162	0.549243
 2.0202	0.549872
 2.0242	0.550501
 2.0282	0.551129
 2.0322	0.551759
 2.0362	0.552388
 2.0402	0.553017
 2.0442	0.553646
 2.0482	0.554276
 2.05221	0.554905
 2.05621	0.555535
 2.06021	0.556164
 2.06421	0.556794
 2.06821	0.557424
 2.07221	0.558053
 2.07621	0.558683
 2.08021	0.559313
 2.08421	0.559943
 2.08821	0.560574
 2.09221	0.561204
 2.09621	0.561834
 2.10021	0.562464
 2.10421	0.563095
 2.10821	0.563725
 2.11221	0.564356
 2.11621	0.564986
 2.12021	0.565617
 2.12421	0.566248
 2.12821	0.566879
 2.13221	0.56751
 2.13621	0.568141
 2.14021	0.568772
 2.14421	0.569403
 2.14821	0.570034
 2.15222	0.570665
 2.15622	0.571296
 2.16022	0.571928
 2.16422	0.572559
 2.16822	0.573191
 2.17222	0.573822
 2.17622	0.574454
 2.18022	0.575085
 2.18422	0.575717
 2.18822	0.576349
 2.19222	0.576981
 2.19622	0.577612
 2.20022	0.57824
 2.20422	0.578797
 2.20822	0.579353
 2.21222	0.57991
 2.21622	0.580466
 2.22022	0.581023
 2.22422	0.581579
 2.22822	0.582136
 2.23222	0.582692
 2.23622	0.583249
 2.24022	0.583805
 2.24422	0.584362
 2.24822	0.584918
 2.25223	0.585474
 2.25623	0.58603
 2.26023	0.586587
 2.26423	0.587143
 2.26823	0.587699
 2.27223	0.588255
 2.27623	0.588812
 2.28023	0.589368
 2.28423	0.589924
 2.28823	0.59048
 2.29223	0.591036
 2.29623	0.591592
 2.30023	0.592148
 2.30423	0.592704
 2.30823	0.59326
 2.31223	0.593816
 2.31623	0.594372
 2.32023	0.594928
 2.32423	0.595484
 2.32823	0.596039
 2.33223	0.596595
 2.33623	0.597151
 2.34023	0.597707
 2.34423	0.598262
 2.34823	0.598818
 2.35224	0.599373
 2.35624	0.599929
 2.36024	0.600485
 2.36424	0.60104
 2.36824	0.601595
 2.37224	0.602151
 2.37624	0.602706
 2.38024	0.603262
 2.38424	0.603817
 2.38824	0.604372
 2.39224	0.604927
 2.39624	0.605483
 2.40024	0.606035
 2.40424	0.606536
 2.40824	0.607038
 2.41224	0.60754
 2.41624	0.608042
 2.42024	0.608543
 2.42424	0.609044
 2.42824	0.609546
 2.43224	0.610047
 2.43624	0.610548
 2.44024	0.611049
 2.44424	0.61155
 2.44824	0.612051
 2.45225	0.612552
 2.45625	0.613053
 2.46025	0.613553
 2.46425	0.614054
 2.46825	0.614554
 2.47225	0.615054
 2.47625	0.615555
 2.48025	0.616055
 2.48425	0.616555
 2.48825	0.617055
 2.49225	0.617555
 2.49625	0.618054
 2.50025	0.618554
 2.50425	0.619054
 2.50825	0.619553
 2.51225	0.620052
 2.51625	0.620552
 2.52025	0.621051
 2.52425	0.62155
 2.52825	0.622049
 2.53225	0.622548
 2.53625	0.623047
 2.54025	0.623545
 2.54425	0.624044
 2.54825	0.624542
 2.55226	0.625041
 2.55626	0.625539
 2.56026	0.626037
 2.56426	0.626535
 2.56826	0.627033
 2.57226	0.627531
 2.57626	0.628029
 2.58026	0.628526
 2.58426	0.629024
 2.58826	0.629521
 2.59226	0.630019
 2.59626	0.630516
 2.60026	0.631009
 2.60426	0.631441
 2.60826	0.631874
 2.61226	0.632306
 2.61626	0.632738
 2.62026	0.63317
 2.62426	0.633601
 2.62826	0.634033
 2.63226	0.634464
 2.63626	0.634895
 2.64026	0.635326
 2.64426	0.635757
 2.64826	0.636188
 2.65227	0.636618
 2.65627	0.637049
 2.66027	0.637479
 2.66427	0.637909
 2.66827	0.638339
 2.67227	0.638769
 2.67627	0.639198
 2.68027	0.639627
 2.68427	0.640057
 2.68827	0.640486
 2.69227	0.640915
 2.69627	0.641343
 2.70027	0.641772
 2.70427	0.6422
 2.70827	0.642629
 2.71227	0.643057
 2.71627	0.643485
 2.72027	0.643912
 2.72427	0.64434
 2.72827	0.644767
 2.73227	0.645195
 2.73627	0.645622
 2.74027	0.646049
 2.74427	0.646476
 2.74827	0.646902
 2.75228	0.647329
 2.75628	0.647755
 2.76028	0.648181
 2.76428	0.648607
 2.76828	0.649033
 2.77228	0.649458
 2.77628	0.649884
 2.78028	0.650309
 2.78428	0.650734
 2.78828	0.651159
 2.79228	0.651584
 2.79628	0.652009
 2.80028	0.652431
 2.80428	0.652819
 2.80828	0.653207
 2.81228	0.653596
 2.81628	0.653984
 2.82028	0.654371
 2.82428	0.654759
 2.82828	0.655146
 2.83228	0.655533
 2.83628	0.65592
 2.84028	0.656307
 2.84428	0.656694
 2.84828	0.65708
 2.85229	0.657466
 2.85629	0.657852
 2.86029	0.658238
 2.86429	0.658624
 2.86829	0.659009
 2.87229	0.659394
 2.87629	0.65978
 2.88029	0.660164
 2.88429	0.660549
 2.88829	0.660933
 2.89229	0.661318
 2.89629	0.661702
 2.90029	0.662085
 2.90429	0.662469
 2.90829	0.662853
 2.91229	0.663236
 2.91629	0.663619
 2.92029	0.664002
 2.92429	0.664384
 2.92829	0.664767
 2.93229	0.665149
 2.93629	0.665531
 2.94029	0.665913
 2.94429	0.666295
 2.94829	0.666676
 2.9523	0.667057
 2.9563	0.667438
 2.9603	0.667819
 2.9643	0.6682
 2.9683	0.66858
 2.9723	0.668961
 2.9763	0.669341
 2.9803	0.669721
 2.9843	0.6701
 2.9883	0.67048
 2.9923	0.670859
 2.9963	0.671238
 3.0003	0.671614
 3.0043	0.671949
 3.0083	0.672285
 3.0123	0.67262
 3.0163	0.672955
 3.0203	0.67329
 3.0243	0.673625
 3.0283	0.673959
 3.0323	0.674293
 3.0363	0.674627
 3.0403	0.674961
 3.0443	0.675295
 3.0483	0.675628
 3.05231	0.675961
 3.05631	0.676294
 3.06031	0.676626
 3.06431	0.676958
 3.06831	0.67729
 3.07231	0.677622
 3.07631	0.677954
 3.08031	0.678285
 3.08431	0.678616
 3.08831	0.678947
 3.09231	0.679278
 3.09631	0.679609
 3.10031	0.679939
 3.10431	0.680269
 3.10831	0.680599
 3.11231	0.680928
 3.11631	0.681257
 3.12031	0.681587
 3.12431	0.681915
 3.12831	0.682244
 3.13231	0.682572
 3.13631	0.682901
 3.14031	0.683228
 3.14431	0.683556
 3.14831	0.683884
 3.15232	0.684211
 3.15632	0.684538
 3.16032	0.684865
 3.16432	0.685191
 3.16832	0.685517
 3.17232	0.685844
 3.17632	0.686169
 3.18032	0.686495
 3.18432	0.68682
 3.18832	0.687146
 3.19232	0.687471
 3.19632	0.687795
 3.20032	0.68812
 3.20432	0.688444
 3.20832	0.688768
 3.21232	0.689092
 3.21632	0.689415
 3.22032	0.689739
 3.22432	0.690062
 3.22832	0.690385
 3.23232	0.690707
 3.23632	0.69103
 3.24032	0.691352
 3.24432	0.691674
 3.24832	0.691995
 3.25233	0.692317
 3.25633	0.692638
 3.26033	0.692959
 3.26433	0.69328
 3.26833	0.6936
 3.27233	0.693921
 3.27633	0.694241
 3.28033	0.694561
 3.28433	0.69488
 3.28833	0.6952
 3.29233	0.695519
 3.29633	0.695838
 3.30033	0.696157
 3.30433	0.696475
 3.30833	0.696793
 3.31233	0.697111
 3.31633	0.697429
 3.32033	0.697747
 3.32433	0.698064
 3.32833	0.698381
 3.33233	0.698698
 3.33633	0.699015
 3.34033	0.699331
 3.34433	0.699647
 3.34833	0.699963
 3.35234	0.700279
 3.35634	0.700594
 3.36034	0.70091
 3.36434	0.701225
 3.36834	0.70154
 3.37234	0.701854
 3.37634	0.702169
 3.38034	0.702483
 3.38434	0.702797
 3.38834	0.70311
 3.39234	0.703424
 3.39634	0.703737
 3.40034	0.70405
 3.40434	0.704363
 3.40834	0.704675
 3.41234	0.704987
 3.41634	0.705299
 3.42034	0.705611
 3.42434	0.705923
 3.42834	0.706234
 3.43234	0.706545
 3.43634	0.706856
 3.44034	0.707167
 3.44434	0.707478
 3.44834	0.707788
 3.45235	0.708098
 3.45635	0.708408
 3.46035	0.708717
 3.46435	0.709026
 3.46835	0.709336
 3.47235	0.709644
 3.47635	0.709953
 3.48035	0.710262
 3.48435	0.71057
 3.48835	0.710878
 3.49235	0.711185
 3.49635	0.711493
 3.50035	0.711797
 3.50435	0.712065
 3.50835	0.712334
 3.51235	0.712602
 3.51635	0.71287
 3.52035	0.713137
 3.52435	0.713405
 3.52835	0.713672
 3.53235	0.713938
 3.53635	0.714205
 3.54035	0.714471
 3.54435	0.714737
 3.54835	0.715003
 3.55236	0.715269
 3.55636	0.715534
 3.56036	0.715799
 3.56436	0.716064
 3.56836	0.716329
 3.57236	0.716593
 3.57636	0.716857
 3.58036	0.717121
 3.58436	0.717385
 3.58836	0.717648
 3.59236	0.717911
 3.59636	0.718174
 3.60036	0.718436
 3.60436	0.718699
 3.60836	0.718961
 3.61236	0.719223
 3.61636	0.719484
 3.62036	0.719746
 3.62436	0.720007
 3.62836	0.720268
 3.63236	0.720528
 3.63636	0.720789
 3.64036	0.721049
 3.64436	0.721309
 3.64836	0.721569
 3.65237	0.721828
 3.65637	0.722087
 3.66037	0.722346
 3.66437	0.722605
 3.66837	0.722863
 3.67237	0.723121
 3.67637	0.723379
 3.68037	0.723637
 3.68437	0.723894
 3.68837	0.724152
 3.69237	0.724409
 3.69637	0.724665
 3.70037	0.724922
 3.70437	0.725178
 3.70837	0.725434
 3.71237	0.72569
 3.71637	0.725945
 3.72037	0.7262
 3.72437	0.726455
 3.72837	0.72671
 3.73237	0.726965
 3.73637	0.727219
 3.74037	0.727473
 3.74437	0.727727
 3.74837	0.72798
 3.75238	0.728234
 3.75638	0.728487
 3.76038	0.72874
 3.76438	0.728992
 3.76838	0.729245
 3.77238	0.729497
 3.77638	0.729748
 3.78038	0.73
 3.78438	0.730251
 3.78838	0.730503
 3.79238	0.730753
 3.79638	0.731004
 3.80038	0.731255
 3.80438	0.731505
 3.80838	0.731755
 3.81238	0.732004
 3.81638	0.732254
 3.82038	0.732503
 3.82438	0.732752
 3.82838	0.733001
 3.83238	0.733249
 3.83638	0.733497
 3.84038	0.733745
 3.84438	0.733993
 3.84838	0.734241
 3.85239	0.734488
 3.85639	0.734735
 3.86039	0.734982
 3.86439	0.735229
 3.86839	0.735475
 3.87239	0.735721
 3.87639	0.735967
 3.88039	0.736212
 3.88439	0.736458
 3.88839	0.736703
 3.89239	0.736948
 3.89639	0.737193
 3.90039	0.737437
 3.90439	0.737681
 3.90839	0.737925
 3.91239	0.738169
 3.91639	0.738412
 3.92039	0.738656
 3.92439	0.738899
 3.92839	0.739142
 3.93239	0.739384
 3.93639	0.739626
 3.94039	0.739869
 3.94439	0.74011
 3.94839	0.740352
 3.9524	0.740593
 3.9564	0.740835
 3.9604	0.741075
 3.9644	0.741316
 3.9684	0.741557
 3.9724	0.741797
 3.9764	0.742037
 3.9804	0.742276
 3.9844	0.742516
 3.9884	0.742755
 3.9924	0.742994
 3.9964	0.743233
 4.0004	0.74347
 4.0044	0.743688
 4.0084	0.743907
 4.0124	0.744125
 4.0164	0.744343
 4.0204	0.744561
 4.0244	0.744778
 4.0284	0.744995
 4.0324	0.745212
 4.0364	0.745429
 4.0404	0.745645
 4.0444	0.745862
 4.0484	0.746078
 4.05241	0.746293
 4.05641	0.746509
 4.06041	0.746724
 4.06441	0.746939
 4.06841	0.747154
 4.07241	0.747369
 4.07641	0.747583
 4.08041	0.747797
 4.08441	0.748011
 4.08841	0.748225
 4.09241	0.748438
 4.09641	0.748651
 4.10041	0.748864
 4.10441	0.749077
 4.10841	0.749289
 4.11241	0.749501
 4.11641	0.749713
 4.12041	0.749925
 4.12441	0.750136
 4.12841	0.750348
 4.13241	0.750559
 4.13641	0.750769
 4.14041	0.75098
 4.14441	0.75119
 4.14841	0.7514
 4.15242	0.75161
 4.15642	0.75182
 4.16042	0.752029
 4.16442	0.752238
 4.16842	0.752447
 4.17242	0.752656
 4.17642	0.752864
 4.18042	0.753072
 4.18442	0.75328
 4.18842	0.753488
 4.19242	0.753695
 4.19642	0.753903
 4.20042	0.75411
 4.20442	0.754316
 4.20842	0.754523
 4.21242	0.754729
 4.21642	0.754935
 4.22042	0.755141
 4.22442	0.755347
 4.22842	0.755552
 4.23242	0.755757
 4.23642	0.755962
 4.24042	0.756167
 4.24442	0.756371
 4.24842	0.756576
 4.25243	0.75678
 4.25643	0.756983
 4.26043	0.757187
 4.26443	0.75739
 4.26843	0.757593
 4.27243	0.757796
 4.27643	0.757999
 4.28043	0.758201
 4.28443	0.758403
 4.28843	0.758605
 4.29243	0.758807
 4.29643	0.759009
 4.30043	0.75921
 4.30443	0.759411
 4.30843	0.759612
 4.31243	0.759812
 4.31643	0.760013
 4.32043	0.760213
 4.32443	0.760412
 4.32843	0.760612
 4.33243	0.760812
 4.33643	0.761011
 4.34043	0.76121
 4.34443	0.761409
 4.34843	0.761607
 4.35244	0.761805
 4.35644	0.762003
 4.36044	0.762201
 4.36444	0.762399
 4.36844	0.762596
 4.37244	0.762793
 4.37644	0.76299
 4.38044	0.763187
 4.38444	0.763384
 4.38844	0.76358
 4.39244	0.763776
 4.39644	0.763972
 4.40044	0.764167
 4.40444	0.764363
 4.40844	0.764558
 4.41244	0.764753
 4.41644	0.764948
 4.42044	0.765142
 4.42444	0.765336
 4.42844	0.76553
 4.43244	0.765724
 4.43644	0.765918
 4.44044	0.766111
 4.44444	0.766304
 4.44844	0.766497
 4.45245	0.76669
 4.45645	0.766882
 4.46045	0.767075
 4.46445	0.767267
 4.46845	0.767459
 4.47245	0.76765
 4.47645	0.767842
 4.48045	0.768033
 4.48445	0.768224
 4.48845	0.768415
 4.49245	0.768605
 4.49645	0.768795
 4.50045	0.768984
 4.50445	0.769164
 4.50845	0.769344
 4.51245	0.769523
 4.51645	0.769703
 4.52045	0.769882
 4.52445	0.770061
 4.52845	0.770239
 4.53245	0.770417
 4.53645	0.770596
 4.54045	0.770774
 4.54445	0.770951
 4.54845	0.771129
 4.55246	0.771306
 4.55646	0.771483
 4.56046	0.77166
 4.56446	0.771836
 4.56846	0.772013
 4.57246	0.772189
 4.57646	0.772365
 4.58046	0.772541
 4.58446	0.772716
 4.58846	0.772892
 4.59246	0.773067
 4.59646	0.773241
 4.60046	0.773416
 4.60446	0.773591
 4.60846	0.773765
 4.61246	0.773939
 4.61646	0.774113
 4.62046	0.774286
 4.62446	0.77446
 4.62846	0.774633
 4.63246	0.774806
